Data from 289_Subt2__2__15-11-26-591.txt Node

Date: Fri Oct 27 15:11:26 MSK 2023
User: mishev
Spectrometer: MAYP115646
Trigger mode: 0
Integration Time (sec): 5,000000E-2
Scans to average: 1
Electric dark correction enabled: true
Nonlinearity correction enabled: false
Boxcar width: 0
XAxis mode: Wavelengths
Number of Pixels in Spectrum: 2068
>>>>>Begin Spectral Data<<<<<
199,511	3,67
199,981	1,67
200,452	1,67
200,923	0,67
201,394	7,67
201,865	-0,33
202,335	0,67
202,806	15,67
203,277	-0,33
203,748	6,67
204,218	9,67
204,689	-0,33
205,159	3,67
205,63	-2,33
206,101	7,67
206,571	16,67
207,042	3,67
207,512	2,67
207,983	1,67
208,453	17,67
208,923	4,67
209,394	4,67
209,864	9,67
210,335	8,67
210,805	11,67
211,275	4,67
211,745	-0,33
212,216	7,67
212,686	11,67
213,156	1,67
213,626	4,67
214,096	0,67
214,566	-2,33
215,037	20,67
215,507	3,67
215,977	13,67
216,447	-0,33
216,917	6,67
217,387	2,67
217,857	10,67
218,326	0,67
218,796	2,67
219,266	-1,33
219,736	5,67
220,206	5,67
220,676	5,67
221,145	2,67
221,615	9,67
222,085	4,67
222,555	5,67
223,024	4,67
223,494	7,67
223,964	2,67
224,433	0,67
224,903	2,67
225,372	4,67
225,842	-0,33
226,311	8,67
226,781	9,67
227,25	6,67
227,72	-5,33
228,189	12,67
228,658	-4,33
229,128	3,67
229,597	10,67
230,066	6,67
230,536	3,67
231,005	16,67
231,474	17,67
231,943	5,67
232,412	6,67
232,881	2,67
233,351	18,67
233,82	-2,33
234,289	-7,33
234,758	4,67
235,227	8,67
235,696	0,67
236,165	11,67
236,634	7,67
237,103	1,67
237,572	13,67
238,04	4,67
238,509	9,67
238,978	0,67
239,447	8,67
239,916	16,67
240,384	7,67
240,853	10,67
241,322	-2,33
241,79	14,67
242,259	7,67
242,728	11,67
243,196	15,67
243,665	-4,33
244,133	3,67
244,602	8,67
245,07	13,67
245,539	1,67
246,007	3,67
246,476	16,67
246,944	6,67
247,413	-3,33
247,881	2,67
248,349	11,67
248,817	6,67
249,286	4,67
249,754	11,67
250,222	8,67
250,69	-0,33
251,159	14,67
251,627	8,67
252,095	-8,33
252,563	8,67
253,031	8,67
253,499	5,67
253,967	15,67
254,435	11,67
254,903	0,67
255,371	10,67
255,839	3,67
256,307	0,67
256,775	13,67
257,242	7,67
257,71	12,67
258,178	5,67
258,646	0,67
259,114	-0,33
259,581	11,67
260,049	20,67
260,517	12,67
260,984	10,67
261,452	3,67
261,919	15,67
262,387	4,67
262,855	12,67
263,322	-0,33
263,79	9,67
264,257	12,67
264,724	9,67
265,192	2,67
265,659	-2,33
266,127	1,67
266,594	-3,33
267,061	-2,33
267,529	6,67
267,996	4,67
268,463	-1,33
268,93	-2,33
269,397	4,67
269,865	12,67
270,332	12,67
270,799	12,67
271,266	0,67
271,733	14,67
272,2	6,67
272,667	6,67
273,134	-0,33
273,601	17,67
274,068	29,67
274,535	9,67
275,002	19,67
275,469	9,67
275,935	13,67
276,402	-3,33
276,869	-0,33
277,336	6,67
277,802	15,67
278,269	7,67
278,736	13,67
279,203	7,67
279,669	7,67
280,136	-5,33
280,602	2,67
281,069	2,67
281,535	13,67
282,002	8,67
282,468	4,67
282,935	-5,33
283,401	1,67
283,868	5,67
284,334	12,67
284,8	3,67
285,267	16,67
285,733	9,67
286,199	14,67
286,666	0,67
287,132	10,67
287,598	-6,33
288,064	7,67
288,53	17,67
288,996	1,67
289,463	9,67
289,929	17,67
290,395	6,67
290,861	13,67
291,327	3,67
291,793	16,67
292,259	19,67
292,725	9,67
293,19	22,67
293,656	-1,33
294,122	3,67
294,588	8,67
295,054	13,67
295,52	4,67
295,985	19,67
296,451	16,67
296,917	7,67
297,382	2,67
297,848	8,67
298,314	2,67
298,779	9,67
299,245	-2,33
299,71	15,67
300,176	8,67
300,641	4,67
301,107	12,67
301,572	14,67
302,038	12,67
302,503	9,67
302,968	1,67
303,434	-4,33
303,899	9,67
304,364	7,67
304,83	10,67
305,295	2,67
305,76	15,67
306,225	19,67
306,69	-4,33
307,156	3,67
307,621	11,67
308,086	1,67
308,551	16,67
309,016	0,67
309,481	19,67
309,946	12,67
310,411	14,67
310,876	21,67
311,341	-4,33
311,806	8,67
312,27	8,67
312,735	16,67
313,2	-9,33
313,665	-2,33
314,13	-7,33
314,594	15,67
315,059	0,67
315,524	1,67
315,988	12,67
316,453	-2,33
316,918	11,67
317,382	10,67
317,847	24,67
318,311	-3,33
318,776	9,67
319,24	8,67
319,705	-2,33
320,169	9,67
320,634	12,67
321,098	23,67
321,562	1,67
322,027	3,67
322,491	16,67
322,955	11,67
323,419	12,67
323,884	8,67
324,348	5,67
324,812	6,67
325,276	5,67
325,74	15,67
326,204	-8,33
326,668	12,67
327,132	-3,33
327,596	15,67
328,06	4,67
328,524	6,67
328,988	8,67
329,452	-3,33
329,916	16,67
330,38	4,67
330,844	12,67
331,308	14,67
331,771	-6,33
332,235	0,67
332,699	0,67
333,163	14,67
333,626	8,67
334,09	0,67
334,554	9,67
335,017	12,67
335,481	4,67
335,944	22,67
336,408	7,67
336,871	1,67
337,335	9,67
337,798	11,67
338,262	0,67
338,725	21,67
339,188	14,67
339,652	12,67
340,115	20,67
340,578	-2,33
341,042	-6,33
341,505	9,67
341,968	6,67
342,431	10,67
342,895	11,67
343,358	6,67
343,821	5,67
344,284	11,67
344,747	10,67
345,21	4,67
345,673	1,67
346,136	17,67
346,599	7,67
347,062	2,67
347,525	13,67
347,988	4,67
348,451	-4,33
348,913	6,67
349,376	15,67
349,839	17,67
350,302	2,67
350,765	6,67
351,227	-1,33
351,69	-4,33
352,153	-2,33
352,615	6,67
353,078	4,67
353,54	28,67
354,003	14,67
354,465	17,67
354,928	13,67
355,39	14,67
355,853	-5,33
356,315	8,67
356,778	9,67
357,24	21,67
357,702	19,67
358,165	7,67
358,627	9,67
359,089	16,67
359,552	11,67
360,014	1,67
360,476	8,67
360,938	3,67
361,4	6,67
361,862	12,67
362,325	-2,33
362,787	2,67
363,249	4,67
363,711	8,67
364,173	14,67
364,635	1,67
365,097	10,67
365,558	9,67
366,02	4,67
366,482	-1,33
366,944	14,67
367,406	1,67
367,868	6,67
368,329	6,67
368,791	2,67
369,253	5,67
369,714	15,67
370,176	10,67
370,638	-0,33
371,099	4,67
371,561	1,67
372,022	3,67
372,484	4,67
372,945	12,67
373,407	4,67
373,868	11,67
374,33	13,67
374,791	9,67
375,253	10,67
375,714	5,67
376,175	14,67
376,637	5,67
377,098	12,67
377,559	10,67
378,02	0,67
378,481	-0,33
378,943	2,67
379,404	6,67
379,865	4,67
380,326	5,67
380,787	5,67
381,248	1,67
381,709	-1,33
382,17	4,67
382,631	4,67
383,092	14,67
383,553	17,67
384,014	1,67
384,474	4,67
384,935	16,67
385,396	12,67
385,857	11,67
386,318	35,67
386,778	13,67
387,239	14,67
387,7	2,67
388,16	6,67
388,621	2,67
389,082	8,67
389,542	12,67
390,003	5,67
390,463	-6,33
390,924	-1,33
391,384	-0,33
391,845	8,67
392,305	15,67
392,765	6,67
393,226	3,67
393,686	13,67
394,146	2,67
394,607	9,67
395,067	20,67
395,527	-8,33
395,987	17,67
396,447	15,67
396,908	9,67
397,368	18,67
397,828	4,67
398,288	21,67
398,748	18,67
399,208	28,67
399,668	24,67
400,128	23,67
400,588	26,67
401,048	20,67
401,508	27,67
401,968	19,67
402,427	50,67
402,887	38,67
403,347	31,67
403,807	44,67
404,266	39,67
404,726	22,67
405,186	47,67
405,645	70,67
406,105	46,67
406,565	76,67
407,024	83,67
407,484	82,67
407,943	79,67
408,403	93,67
408,862	116,67
409,322	97,67
409,781	125,67
410,241	152,67
410,7	120,67
411,159	156,67
411,619	186,67
412,078	173,67
412,537	160,67
412,996	213,67
413,456	259,67
413,915	274,67
414,374	296,67
414,833	319,67
415,292	308,67
415,751	394,67
416,21	377,67
416,669	470,67
417,128	446,67
417,587	497,67
418,046	605,67
418,505	594,67
418,964	652,67
419,423	763,67
419,882	740,67
420,341	844,67
420,799	935,67
421,258	1023,67
421,717	1110,67
422,176	1230,67
422,634	1224,67
423,093	1362,67
423,552	1549,67
424,01	1623,67
424,469	1735,67
424,927	1836,67
425,386	1931,67
425,844	2025,67
426,303	2402,67
426,761	2427,67
427,22	2496,67
427,678	2764,67
428,137	2928,67
428,595	3109,67
429,053	3237,67
429,512	3492,67
429,97	3634,67
430,428	3965,67
430,886	4084,67
431,344	4392,67
431,803	4517,67
432,261	4757,67
432,719	5073,67
433,177	5266,67
433,635	5529,67
434,093	5646,67
434,551	5831,67
435,009	6375,67
435,467	6359,67
435,925	6660,67
436,383	7003,67
436,841	7166,67
437,299	7482,67
437,756	7733,67
438,214	7794,67
438,672	8280,67
439,13	8650,67
439,587	8723,67
440,045	9277,67
440,503	9450,67
440,96	9865,67
441,418	9732,67
441,876	10363,67
442,333	10766,67
442,791	10900,67
443,248	11428,67
443,706	11617,67
444,163	12244,67
444,621	12410,67
445,078	12673,67
445,535	13051,67
445,993	13863,67
446,45	13778,67
446,907	14361,67
447,365	14591,67
447,822	14496,67
448,279	14772,67
448,736	14715,67
449,193	15098,67
449,651	14982,67
450,108	15067,67
450,565	14707,67
451,022	14628,67
451,479	14340,67
451,936	14265,67
452,393	13974,67
452,85	13640,67
453,307	12962,67
453,764	12730,67
454,221	12511,67
454,677	11978,67
455,134	11306,67
455,591	10907,67
456,048	10343,67
456,505	9930,67
456,961	9626,67
457,418	9037,67
457,875	8899,67
458,331	8299,67
458,788	7986,67
459,244	7857,67
459,701	7375,67
460,158	7177,67
460,614	7016,67
461,071	6491,67
461,527	6563,67
461,983	6293,67
462,44	6048,67
462,896	5795,67
463,353	5618,67
463,809	5603,67
464,265	5490,67
464,721	5289,67
465,178	5170,67
465,634	4938,67
466,09	4856,67
466,546	4730,67
467,002	4690,67
467,458	4528,67
467,915	4397,67
468,371	4106,67
468,827	4112,67
469,283	4011,67
469,739	3724,67
470,195	3802,67
470,651	3681,67
471,106	3469,67
471,562	3284,67
472,018	3235,67
472,474	3116,67
472,93	3144,67
473,386	2813,67
473,841	2940,67
474,297	2881,67
474,753	2695,67
475,208	2626,67
475,664	2622,67
476,12	2539,67
476,575	2587,67
477,031	2519,67
477,486	2312,67
477,942	2279,67
478,397	2306,67
478,853	2365,67
479,308	2297,67
479,763	2254,67
480,219	2271,67
480,674	2179,67
481,13	2114,67
481,585	2286,67
482,04	2131,67
482,495	2217,67
482,951	2158,67
483,406	2208,67
483,861	2200,67
484,316	2162,67
484,771	2208,67
485,226	2030,67
485,681	2193,67
486,136	2183,67
486,591	2090,67
487,046	2165,67
487,501	2230,67
487,956	2089,67
488,411	2208,67
488,866	2195,67
489,321	2234,67
489,775	2331,67
490,23	2302,67
490,685	2310,67
491,14	2399,67
491,594	2436,67
492,049	2403,67
492,504	2542,67
492,958	2605,67
493,413	2606,67
493,868	2555,67
494,322	2701,67
494,777	2795,67
495,231	2862,67
495,686	2886,67
496,14	2980,67
496,594	2943,67
497,049	3008,67
497,503	2966,67
497,958	3209,67
498,412	3216,67
498,866	3220,67
499,32	3384,67
499,775	3447,67
500,229	3418,67
500,683	3439,67
501,137	3499,67
501,591	3673,67
502,045	3733,67
502,499	3789,67
502,953	3927,67
503,407	4028,67
503,861	3994,67
504,315	4154,67
504,769	4078,67
505,223	4365,67
505,677	4321,67
506,131	4228,67
506,585	4442,67
507,039	4532,67
507,492	4559,67
507,946	4500,67
508,4	4582,67
508,854	4840,67
509,307	5034,67
509,761	4737,67
510,214	4914,67
510,668	5040,67
511,122	5096,67
511,575	5393,67
512,029	5308,67
512,482	5298,67
512,936	5494,67
513,389	5478,67
513,842	5498,67
514,296	5527,67
514,749	5580,67
515,202	5674,67
515,656	5689,67
516,109	5832,67
516,562	5700,67
517,015	5902,67
517,469	5948,67
517,922	6118,67
518,375	5975,67
518,828	6161,67
519,281	6170,67
519,734	6539,67
520,187	6225,67
520,64	6345,67
521,093	6234,67
521,546	6534,67
521,999	6408,67
522,452	6578,67
522,905	6333,67
523,358	6481,67
523,81	6894,67
524,263	6621,67
524,716	6636,67
525,169	6776,67
525,621	6662,67
526,074	6783,67
526,527	6812,67
526,979	6717,67
527,432	6788,67
527,884	7061,67
528,337	6820,67
528,789	6966,67
529,242	6911,67
529,694	6909,67
530,147	7140,67
530,599	6992,67
531,052	7038,67
531,504	7123,67
531,956	7160,67
532,409	7096,67
532,861	6962,67
533,313	7024,67
533,765	7274,67
534,218	7039,67
534,67	7135,67
535,122	7057,67
535,574	6998,67
536,026	7191,67
536,478	7005,67
536,93	7126,67
537,382	7124,67
537,834	7260,67
538,286	7239,67
538,738	7176,67
539,19	7278,67
539,642	7164,67
540,094	7619,67
540,545	7167,67
540,997	7372,67
541,449	7231,67
541,901	7202,67
542,352	7220,67
542,804	7376,67
543,256	7181,67
543,707	7434,67
544,159	7295,67
544,611	7410,67
545,062	7451,67
545,514	7214,67
545,965	7391,67
546,417	7340,67
546,868	7299,67
547,319	7202,67
547,771	7216,67
548,222	7241,67
548,674	7118,67
549,125	7209,67
549,576	7128,67
550,027	7282,67
550,479	7354,67
550,93	7417,67
551,381	7305,67
551,832	7234,67
552,283	7463,67
552,734	7490,67
553,185	7311,67
553,636	7392,67
554,087	7378,67
554,538	7238,67
554,989	7344,67
555,44	7569,67
555,891	7572,67
556,342	7451,67
556,793	7323,67
557,244	7459,67
557,694	7295,67
558,145	7206,67
558,596	7278,67
559,047	7548,67
559,497	7236,67
559,948	7365,67
560,399	7227,67
560,849	7451,67
561,3	7354,67
561,75	7434,67
562,201	7398,67
562,651	7335,67
563,102	7614,67
563,552	7152,67
564,003	7187,67
564,453	7251,67
564,903	7320,67
565,354	7489,67
565,804	7324,67
566,254	7397,67
566,705	7405,67
567,155	7322,67
567,605	7526,67
568,055	7491,67
568,505	7313,67
568,955	7356,67
569,405	7274,67
569,856	7381,67
570,306	7527,67
570,756	7390,67
571,206	7351,67
571,656	7513,67
572,105	7487,67
572,555	7384,67
573,005	7539,67
573,455	7718,67
573,905	7477,67
574,355	7492,67
574,804	7322,67
575,254	7461,67
575,704	7687,67
576,154	7520,67
576,603	7463,67
577,053	7627,67
577,502	7778,67
577,952	7648,67
578,402	7774,67
578,851	7740,67
579,301	7864,67
579,75	7870,67
580,199	7689,67
580,649	7833,67
581,098	7757,67
581,548	7739,67
581,997	7894,67
582,446	8123,67
582,895	8004,67
583,345	8127,67
583,794	8018,67
584,243	8126,67
584,692	8339,67
585,141	8271,67
585,591	8515,67
586,04	8424,67
586,489	8458,67
586,938	8576,67
587,387	8382,67
587,836	8842,67
588,285	8866,67
588,734	8788,67
589,182	8922,67
589,631	8845,67
590,08	8829,67
590,529	8989,67
590,978	9046,67
591,426	8976,67
591,875	9316,67
592,324	9284,67
592,773	9439,67
593,221	9492,67
593,67	9588,67
594,118	9854,67
594,567	9755,67
595,016	9831,67
595,464	9785,67
595,913	9976,67
596,361	10112,67
596,809	10056,67
597,258	10079,67
597,706	10338,67
598,155	10206,67
598,603	10297,67
599,051	10530,67
599,499	10332,67
599,948	10694,67
600,396	10533,67
600,844	10646,67
601,292	10697,67
601,74	10972,67
602,188	10667,67
602,636	11038,67
603,085	10985,67
603,533	10794,67
603,981	11107,67
604,429	11173,67
604,876	11249,67
605,324	11081,67
605,772	11143,67
606,22	11245,67
606,668	11078,67
607,116	11281,67
607,563	11100,67
608,011	11196,67
608,459	11114,67
608,907	11091,67
609,354	11185,67
609,802	11355,67
610,25	11189,67
610,697	10984,67
611,145	11229,67
611,592	11042,67
612,04	10942,67
612,487	10948,67
612,935	10966,67
613,382	10946,67
613,829	10818,67
614,277	10825,67
614,724	10638,67
615,171	10507,67
615,619	10312,67
616,066	10301,67
616,513	10338,67
616,96	10194,67
617,408	10264,67
617,855	10039,67
618,302	9828,67
618,749	9768,67
619,196	9759,67
619,643	9675,67
620,09	9497,67
620,537	9373,67
620,984	9357,67
621,431	9230,67
621,878	9276,67
622,325	8955,67
622,771	8844,67
623,218	8794,67
623,665	8700,67
624,112	8645,67
624,559	8431,67
625,005	8445,67
625,452	8260,67
625,899	8083,67
626,345	7958,67
626,792	7801,67
627,238	7701,67
627,685	7750,67
628,131	7538,67
628,578	7363,67
629,024	7267,67
629,471	7308,67
629,917	7108,67
630,364	6988,67
630,81	6896,67
631,256	6767,67
631,703	6532,67
632,149	6562,67
632,595	6523,67
633,041	6337,67
633,487	6281,67
633,934	6184,67
634,38	6052,67
634,826	6003,67
635,272	5988,67
635,718	5797,67
636,164	5735,67
636,61	5617,67
637,056	5567,67
637,502	5623,67
637,948	5445,67
638,394	5307,67
638,839	5174,67
639,285	4936,67
639,731	4811,67
640,177	4919,67
640,623	4885,67
641,068	4778,67
641,514	4546,67
641,96	4543,67
642,405	4584,67
642,851	4361,67
643,296	4253,67
643,742	4348,67
644,187	4305,67
644,633	4061,67
645,078	4237,67
645,524	3897,67
645,969	4067,67
646,415	3726,67
646,86	3786,67
647,305	3836,67
647,751	3630,67
648,196	3681,67
648,641	3606,67
649,086	3513,67
649,532	3580,67
649,977	3462,67
650,422	3335,67
650,867	3368,67
651,312	3111,67
651,757	3109,67
652,202	3154,67
652,647	3046,67
653,092	3059,67
653,537	3070,67
653,982	3036,67
654,427	2839,67
654,872	2795,67
655,316	2885,67
655,761	2824,67
656,206	2765,67
656,651	2736,67
657,096	2646,67
657,54	2746,67
657,985	2509,67
658,43	2604,67
658,874	2449,67
659,319	2425,67
659,763	2493,67
660,208	2353,67
660,652	2399,67
661,097	2242,67
661,541	2361,67
661,986	2217,67
662,43	2235,67
662,874	2169,67
663,319	2062,67
663,763	2077,67
664,207	2116,67
664,651	2039,67
665,096	2067,67
665,54	1965,67
665,984	1968,67
666,428	1931,67
666,872	1898,67
667,316	1843,67
667,76	1891,67
668,204	1815,67
668,648	1762,67
669,092	1725,67
669,536	1721,67
669,98	1674,67
670,424	1658,67
670,868	1599,67
671,312	1538,67
671,756	1588,67
672,199	1592,67
672,643	1521,67
673,087	1478,67
673,531	1467,67
673,974	1414,67
674,418	1469,67
674,862	1483,67
675,305	1457,67
675,749	1377,67
676,192	1504,67
676,636	1375,67
677,079	1313,67
677,523	1274,67
677,966	1323,67
678,409	1265,67
678,853	1193,67
679,296	1226,67
679,739	1303,67
680,183	1208,67
680,626	1131,67
681,069	1188,67
681,512	1101,67
681,955	1103,67
682,399	1091,67
682,842	1082,67
683,285	1092,67
683,728	1076,67
684,171	1088,67
684,614	1101,67
685,057	1018,67
685,5	1037,67
685,943	1059,67
686,386	1033,67
686,828	991,67
687,271	981,67
687,714	943,67
688,157	864,67
688,6	903,67
689,042	929,67
689,485	837,67
689,928	769,67
690,37	848,67
690,813	861,67
691,255	835,67
691,698	829,67
692,141	772,67
692,583	810,67
693,025	784,67
693,468	800,67
693,91	821,67
694,353	763,67
694,795	738,67
695,237	741,67
695,68	746,67
696,122	732,67
696,564	750,67
697,006	744,67
697,449	689,67
697,891	701,67
698,333	702,67
698,775	692,67
699,217	626,67
699,659	677,67
700,101	637,67
700,543	653,67
700,985	635,67
701,427	596,67
701,869	577,67
702,311	555,67
702,753	635,67
703,195	549,67
703,636	582,67
704,078	605,67
704,52	516,67
704,962	552,67
705,403	556,67
705,845	467,67
706,286	506,67
706,728	496,67
707,17	470,67
707,611	455,67
708,053	472,67
708,494	505,67
708,936	486,67
709,377	398,67
709,819	436,67
710,26	448,67
710,701	472,67
711,143	438,67
711,584	439,67
712,025	427,67
712,466	440,67
712,908	370,67
713,349	389,67
713,79	444,67
714,231	407,67
714,672	360,67
715,113	376,67
715,554	363,67
715,995	384,67
716,436	398,67
716,877	379,67
717,318	377,67
717,759	365,67
718,2	346,67
718,641	319,67
719,082	322,67
719,522	361,67
719,963	326,67
720,404	272,67
720,844	298,67
721,285	305,67
721,726	321,67
722,166	285,67
722,607	301,67
723,048	293,67
723,488	230,67
723,929	302,67
724,369	238,67
724,81	302,67
725,25	260,67
725,69	285,67
726,131	245,67
726,571	258,67
727,011	231,67
727,452	232,67
727,892	244,67
728,332	223,67
728,772	219,67
729,212	222,67
729,653	234,67
730,093	263,67
730,533	219,67
730,973	225,67
731,413	200,67
731,853	211,67
732,293	202,67
732,733	194,67
733,173	189,67
733,613	196,67
734,052	185,67
734,492	180,67
734,932	211,67
735,372	157,67
735,812	195,67
736,251	174,67
736,691	187,67
737,131	183,67
737,57	200,67
738,01	168,67
738,449	165,67
738,889	167,67
739,329	148,67
739,768	156,67
740,208	169,67
740,647	145,67
741,086	187,67
741,526	199,67
741,965	147,67
742,404	133,67
742,844	141,67
743,283	164,67
743,722	138,67
744,161	153,67
744,601	164,67
745,04	136,67
745,479	124,67
745,918	114,67
746,357	127,67
746,796	153,67
747,235	139,67
747,674	124,67
748,113	120,67
748,552	119,67
748,991	137,67
749,43	144,67
749,869	112,67
750,307	146,67
750,746	115,67
751,185	114,67
751,624	111,67
752,062	129,67
752,501	98,67
752,94	99,67
753,378	125,67
753,817	113,67
754,255	79,67
754,694	126,67
755,132	116,67
755,571	111,67
756,009	91,67
756,448	100,67
756,886	80,67
757,325	98,67
757,763	93,67
758,201	113,67
758,639	100,67
759,078	47,67
759,516	77,67
759,954	86,67
760,392	57,67
760,83	105,67
761,268	99,67
761,707	80,67
762,145	95,67
762,583	85,67
763,021	81,67
763,459	67,67
763,896	92,67
764,334	87,67
764,772	76,67
765,21	59,67
765,648	92,67
766,086	73,67
766,524	82,67
766,961	89,67
767,399	75,67
767,837	89,67
768,274	71,67
768,712	84,67
769,149	69,67
769,587	77,67
770,025	61,67
770,462	60,67
770,9	75,67
771,337	59,67
771,774	70,67
772,212	74,67
772,649	76,67
773,087	73,67
773,524	86,67
773,961	66,67
774,398	51,67
774,836	18,67
775,273	53,67
775,71	61,67
776,147	52,67
776,584	39,67
777,021	58,67
777,458	60,67
777,895	54,67
778,332	63,67
778,769	52,67
779,206	45,67
779,643	66,67
780,08	38,67
780,517	65,67
780,954	41,67
781,391	25,67
781,827	62,67
782,264	46,67
782,701	68,67
783,137	49,67
783,574	34,67
784,011	32,67
784,447	41,67
784,884	47,67
785,32	48,67
785,757	51,67
786,193	61,67
786,63	45,67
787,066	35,67
787,503	31,67
787,939	45,67
788,375	35,67
788,812	35,67
789,248	27,67
789,684	40,67
790,12	39,67
790,557	60,67
790,993	27,67
791,429	38,67
791,865	39,67
792,301	28,67
792,737	52,67
793,173	19,67
793,609	31,67
794,045	23,67
794,481	45,67
794,917	13,67
795,353	34,67
795,789	38,67
796,225	35,67
796,66	26,67
797,096	33,67
797,532	27,67
797,968	38,67
798,403	8,67
798,839	17,67
799,275	22,67
799,71	36,67
800,146	24,67
800,581	33,67
801,017	21,67
801,452	14,67
801,888	21,67
802,323	41,67
802,759	14,67
803,194	28,67
803,629	20,67
804,065	21,67
804,5	27,67
804,935	24,67
805,37	16,67
805,806	39,67
806,241	25,67
806,676	25,67
807,111	26,67
807,546	11,67
807,981	41,67
808,416	51,67
808,851	14,67
809,286	28,67
809,721	29,67
810,156	4,67
810,591	16,67
811,026	23,67
811,46	34,67
811,895	7,67
812,33	34,67
812,765	7,67
813,199	19,67
813,634	18,67
814,069	23,67
814,503	22,67
814,938	8,67
815,373	21,67
815,807	13,67
816,242	10,67
816,676	15,67
817,111	14,67
817,545	17,67
817,979	25,67
818,414	18,67
818,848	22,67
819,282	34,67
819,717	9,67
820,151	29,67
820,585	-4,33
821,019	18,67
821,453	22,67
821,888	21,67
822,322	18,67
822,756	15,67
823,19	0,67
823,624	14,67
824,058	31,67
824,492	8,67
824,926	6,67
825,36	13,67
825,794	20,67
826,227	23,67
826,661	26,67
827,095	11,67
827,529	14,67
827,962	19,67
828,396	11,67
828,83	13,67
829,263	20,67
829,697	4,67
830,131	4,67
830,564	16,67
830,998	15,67
831,431	10,67
831,865	29,67
832,298	22,67
832,732	17,67
833,165	15,67
833,598	25,67
834,032	3,67
834,465	2,67
834,898	14,67
835,331	13,67
835,765	5,67
836,198	24,67
836,631	14,67
837,064	5,67
837,497	9,67
837,93	13,67
838,363	9,67
838,796	13,67
839,229	16,67
839,662	7,67
840,095	13,67
840,528	12,67
840,961	12,67
841,394	15,67
841,827	9,67
842,259	5,67
842,692	7,67
843,125	-0,33
843,558	14,67
843,99	9,67
844,423	4,67
844,855	11,67
845,288	3,67
845,721	7,67
846,153	11,67
846,586	11,67
847,018	12,67
847,45	19,67
847,883	8,67
848,315	10,67
848,748	5,67
849,18	12,67
849,612	16,67
850,044	2,67
850,477	5,67
850,909	4,67
851,341	9,67
851,773	0,67
852,205	9,67
852,637	0,67
853,069	2,67
853,501	13,67
853,933	15,67
854,365	10,67
854,797	4,67
855,229	8,67
855,661	2,67
856,093	9,67
856,525	5,67
856,957	20,67
857,388	-1,33
857,82	8,67
858,252	-6,33
858,683	9,67
859,115	-8,33
859,547	6,67
859,978	5,67
860,41	7,67
860,841	9,67
861,273	14,67
861,704	9,67
862,136	19,67
862,567	-2,33
862,999	12,67
863,43	14,67
863,861	9,67
864,293	3,67
864,724	9,67
865,155	0,67
865,586	6,67
866,017	7,67
866,449	-2,33
866,88	13,67
867,311	-7,33
867,742	10,67
868,173	12,67
868,604	-2,33
869,035	15,67
869,466	2,67
869,897	6,67
870,328	6,67
870,759	13,67
871,189	-2,33
871,62	3,67
872,051	9,67
872,482	-0,33
872,912	3,67
873,343	3,67
873,774	2,67
874,204	-0,33
874,635	0,67
875,066	3,67
875,496	11,67
875,927	-1,33
876,357	5,67
876,788	-0,33
877,218	4,67
877,648	13,67
878,079	-2,33
878,509	7,67
878,939	0,67
879,37	-4,33
879,8	14,67
880,23	-3,33
880,66	3,67
881,091	24,67
881,521	9,67
881,951	4,67
882,381	12,67
882,811	15,67
883,241	8,67
883,671	9,67
884,101	5,67
884,531	-6,33
884,961	-6,33
885,391	6,67
885,82	3,67
886,25	9,67
886,68	1,67
887,11	2,67
887,539	8,67
887,969	4,67
888,399	3,67
888,828	12,67
889,258	-8,33
889,688	1,67
890,117	-3,33
890,547	2,67
890,976	14,67
891,406	6,67
891,835	-1,33
892,264	3,67
892,694	-5,33
893,123	-3,33
893,553	-0,33
893,982	17,67
894,411	6,67
894,84	0,67
895,269	6,67
895,699	0,67
896,128	3,67
896,557	-9,33
896,986	-0,33
897,415	-16,33
897,844	-0,33
898,273	-3,33
898,702	2,67
899,131	-0,33
899,56	4,67
899,989	-6,33
900,418	11,67
900,846	-1,33
901,275	4,67
901,704	7,67
902,133	4,67
902,561	2,67
902,99	10,67
903,419	4,67
903,847	-1,33
904,276	-2,33
904,704	-6,33
905,133	0,67
905,561	13,67
905,99	9,67
906,418	6,67
906,847	5,67
907,275	0,67
907,704	9,67
908,132	6,67
908,56	10,67
908,988	2,67
909,417	4,67
909,845	1,67
910,273	-12,33
910,701	0,67
911,129	9,67
911,557	8,67
911,985	14,67
912,413	3,67
912,841	10,67
913,269	9,67
913,697	-0,33
914,125	3,67
914,553	1,67
914,981	-5,33
915,409	6,67
915,837	2,67
916,264	-3,33
916,692	1,67
917,12	10,67
917,547	0,67
917,975	-0,33
918,403	6,67
918,83	8,67
919,258	-0,33
919,685	13,67
920,113	-7,33
920,54	6,67
920,968	5,67
921,395	7,67
921,823	-1,33
922,25	5,67
922,677	-3,33
923,104	9,67
923,532	7,67
923,959	8,67
924,386	-4,33
924,813	-4,33
925,24	7,67
925,668	0,67
926,095	5,67
926,522	4,67
926,949	-12,33
927,376	10,67
927,803	-6,33
928,23	4,67
928,657	4,67
929,083	7,67
929,51	12,67
929,937	2,67
930,364	8,67
930,791	-5,33
931,217	2,67
931,644	-2,33
932,071	15,67
932,497	-3,33
932,924	11,67
933,351	5,67
933,777	5,67
934,204	-2,33
934,63	-2,33
935,057	-3,33
935,483	6,67
935,909	-1,33
936,336	-0,33
936,762	-13,33
937,188	1,67
937,615	-8,33
938,041	0,67
938,467	-4,33
938,893	22,67
939,32	-4,33
939,746	2,67
940,172	1,67
940,598	-4,33
941,024	5,67
941,45	4,67
941,876	5,67
942,302	5,67
942,728	0,67
943,154	-1,33
943,58	-10,33
944,005	0,67
944,431	6,67
944,857	4,67
945,283	1,67
945,709	8,67
946,134	-1,33
946,56	0,67
946,986	3,67
947,411	-0,33
947,837	3,67
948,262	-1,33
948,688	13,67
949,113	9,67
949,539	-1,33
949,964	-2,33
950,39	16,67
950,815	1,67
951,24	10,67
951,666	-0,33
952,091	3,67
952,516	5,67
952,941	1,67
953,367	2,67
953,792	1,67
954,217	7,67
954,642	-2,33
955,067	8,67
955,492	2,67
955,917	8,67
956,342	13,67
956,767	-3,33
957,192	14,67
957,617	-4,33
958,042	-1,33
958,466	1,67
958,891	-9,33
959,316	5,67
959,741	16,67
960,166	3,67
960,59	1,67
961,015	1,67
961,439	7,67
961,864	-0,33
962,289	-7,33
962,713	13,67
963,138	-3,33
963,562	9,67
963,987	-2,33
964,411	4,67
964,835	-9,33
965,26	12,67
965,684	0,67
966,108	6,67
966,533	2,67
966,957	6,67
967,381	-2,33
967,805	10,67
968,229	4,67
968,654	5,67
969,078	-6,33
969,502	-4,33
969,926	-7,33
970,35	0,67
970,774	5,67
971,198	0,67
971,622	-11,33
972,045	-13,33
972,469	0,67
972,893	-7,33
973,317	4,67
973,741	-6,33
974,164	6,67
974,588	1,67
975,012	10,67
975,435	7,67
975,859	7,67
976,283	-5,33
976,706	-3,33
977,13	7,67
977,553	13,67
977,977	3,67
978,4	-2,33
978,824	-10,33
979,247	0,67
979,67	1,67
980,094	-0,33
980,517	12,67
980,94	-1,33
981,363	-3,33
981,786	-10,33
982,21	7,67
982,633	2,67
983,056	0,67
983,479	-2,33
983,902	-0,33
984,325	7,67
984,748	2,67
985,171	-5,33
985,594	-0,33
986,017	4,67
986,44	3,67
986,863	-7,33
987,285	-1,33
987,708	-1,33
988,131	2,67
988,554	-1,33
988,976	0,67
989,399	4,67
989,822	0,67
990,244	6,67
990,667	11,67
991,089	11,67
991,512	3,67
991,934	-4,33
992,357	3,67
992,779	2,67
993,201	1,67
993,624	4,67
994,046	1,67
994,468	-3,33
994,891	-12,33
995,313	11,67
995,735	4,67
996,157	7,67
996,579	3,67
997,002	3,67
997,424	-2,33
997,846	9,67
998,268	-4,33
998,69	7,67
999,112	1,67
999,534	2,67
999,956	4,67
1000,377	-0,33
1000,799	7,67
1001,221	6,67
1001,643	17,67
1002,065	2,67
1002,486	-3,33
1002,908	10,67
1003,33	5,67
1003,751	9,67
1004,173	6,67
1004,595	8,67
1005,016	1,67
1005,438	6,67
1005,859	1,67
1006,281	6,67
1006,702	6,67
1007,123	-4,33
1007,545	-2,33
1007,966	12,67
1008,387	2,67
1008,809	12,67
1009,23	-1,33
1009,651	5,67
1010,072	2,67
1010,494	-0,33
1010,915	-7,33
1011,336	-0,33
1011,757	6,67
1012,178	2,67
1012,599	-5,33
1013,02	4,67
1013,441	-0,33
1013,862	10,67
1014,283	5,67
1014,703	11,67
1015,124	-11,33
1015,545	9,67
1015,966	11,67
1016,387	-1,33
1016,807	-4,33
1017,228	11,67
1017,649	8,67
1018,069	-10,33
1018,49	9,67
1018,91	0,67
1019,331	-14,33
1019,751	0,67
1020,172	0,67
1020,592	3,67
1021,013	3,67
1021,433	3,67
1021,853	-4,33
1022,274	-1,33
1022,694	-4,33
1023,114	-2,33
1023,535	1,67
1023,955	-7,33
1024,375	1,67
1024,795	1,67
1025,215	3,67
1025,635	5,67
1026,055	-0,33
1026,475	-0,33
1026,895	9,67
1027,315	0,67
1027,735	7,67
1028,155	-6,33
1028,575	-1,33
1028,995	8,67
1029,414	6,67
1029,834	16,67
1030,254	-0,33
1030,674	-21,33
1031,093	8,67
1031,513	8,67
1031,933	1,67
1032,352	-2,33
1032,772	-3,33
1033,191	-11,33
1033,611	-1,33
1034,03	2,67
1034,45	-13,33
1034,869	12,67
1035,289	1,67
1035,708	-1,33
1036,127	3,67
1036,546	11,67
1036,966	-5,33
1037,385	-6,33
1037,804	2,67
1038,223	11,67
1038,642	12,67
1039,062	0,67
1039,481	4,67
1039,9	-0,33
1040,319	2,67
1040,738	2,67
1041,157	-8,33
1041,576	-3,33
1041,994	0,67
1042,413	6,67
1042,832	7,67
1043,251	7,67
1043,67	12,67
1044,088	4,67
1044,507	-0,33
1044,926	1,67
1045,345	0,67
1045,763	-3,33
1046,182	1,67
1046,6	-1,33
1047,019	1,67
1047,437	10,67
1047,856	1,67
1048,274	-2,33
1048,693	-1,33
1049,111	7,67
1049,529	-12,33
1049,948	7,67
1050,366	-7,33
1050,784	-9,33
1051,202	-3,33
1051,621	-9,33
1052,039	1,67
1052,457	8,67
1052,875	5,67
1053,293	3,67
1053,711	-2,33
1054,129	-13,33
1054,547	-1,33
1054,965	-0,33
1055,383	6,67
1055,801	6,67
1056,219	-0,33
1056,637	-6,33
1057,054	-0,33
1057,472	-3,33
1057,89	5,67
1058,308	9,67
1058,725	-0,33
1059,143	-1,33
1059,561	14,67
1059,978	0,67
1060,396	-14,33
1060,813	2,67
1061,231	-0,33
1061,648	1,67
1062,066	15,67
1062,483	3,67
1062,9	-0,33
1063,318	7,67
1063,735	-6,33
1064,152	0,67
1064,57	12,67
1064,987	-9,33
1065,404	7,67
1065,821	-0,33
1066,238	-8,33
1066,655	14,67
1067,073	-9,33
1067,49	-0,33
1067,907	2,67
1068,324	-8,33
1068,741	2,67
1069,157	7,67
1069,574	9,67
1069,991	-6,33
1070,408	-6,33
1070,825	-3,33
1071,242	-5,33
1071,658	-1,33
1072,075	-7,33
1072,492	3,67
1072,908	-14,33
1073,325	-4,33
1073,742	8,67
1074,158	0,67
1074,575	-2,33
1074,991	-3,33
1075,408	-1,33
1075,824	-1,33
1076,24	10,67
1076,657	-1,33
1077,073	13,67
1077,489	5,67
1077,906	1,67
1078,322	3,67
1078,738	5,67
1079,154	11,67
1079,571	-8,33
1079,987	-18,33
1080,403	-0,33
1080,819	5,67
1081,235	4,67
1081,651	-11,33
1082,067	-6,33
1082,483	4,67
1082,899	1,67
1083,315	-0,33
1083,73	13,67
1084,146	-5,33
1084,562	-5,33
1084,978	6,67
1085,394	-5,33
1085,809	4,67
1086,225	-12,33
1086,641	1,67
1087,056	-8,33
1087,472	5,67
1087,887	-4,33
1088,303	10,67
1088,718	8,67
1089,134	-1,33
1089,549	7,67
1089,965	16,67
1090,38	-5,33
1090,795	0,67
1091,21	-6,33
1091,626	-3,33
1092,041	2,67
1092,456	-1,33
1092,871	1,67
1093,287	-6,33
1093,702	9,67
1094,117	7,67
1094,532	2,67
1094,947	4,67
1095,362	10,67
1095,777	2,67
1096,192	-8,33
1096,607	1,67
1097,021	8,67
1097,436	15,67
1097,851	9,67
1098,266	3,67
1098,681	6,67
1099,095	6,67
1099,51	3,67
1099,925	5,67
1100,339	9,67
1100,754	-4,33
1101,168	8,67
1101,583	11,67
1101,998	0,67
1102,412	13,67
1102,826	1,67
1103,241	-4,33
1103,655	10,67
1104,07	-15,33
1104,484	-6,33
1104,898	7,67
1105,312	-2,33
1105,727	6,67
1106,141	4,67
1106,555	8,67
1106,969	8,67
1107,383	-6,33
1107,797	10,67
1108,211	-4,33
1108,625	-3,33
1109,039	7,67
1109,453	-10,33
1109,867	-4,33
1110,281	2,67
1110,695	0,67
1111,109	-5,33
1111,523	2,67
1111,936	-3,33
1112,35	1,67
1112,764	-1,33
1113,177	3,67
1113,591	3,67
1114,005	0,67
1114,418	0,67
1114,832	-0,33
1115,245	-1,33
1115,659	-1,33
