Data from 297_1_Subt2__0__15-39-39-128.txt Node

Date: Fri Oct 27 15:39:39 MSK 2023
User: mishev
Spectrometer: MAYP115646
Trigger mode: 0
Integration Time (sec): 5,000000E-2
Scans to average: 1
Electric dark correction enabled: true
Nonlinearity correction enabled: false
Boxcar width: 0
XAxis mode: Wavelengths
Number of Pixels in Spectrum: 2068
>>>>>Begin Spectral Data<<<<<
199,511	-0,33
199,981	1,67
200,452	-2,33
200,923	0,67
201,394	3,67
201,865	13,67
202,335	-1,33
202,806	-1,33
203,277	1,67
203,748	0,67
204,218	7,67
204,689	16,67
205,159	5,67
205,63	2,67
206,101	3,67
206,571	1,67
207,042	3,67
207,512	19,67
207,983	-3,33
208,453	2,67
208,923	9,67
209,394	-1,33
209,864	13,67
210,335	-4,33
210,805	5,67
211,275	1,67
211,745	1,67
212,216	13,67
212,686	8,67
213,156	-1,33
213,626	12,67
214,096	7,67
214,566	0,67
215,037	2,67
215,507	19,67
215,977	6,67
216,447	14,67
216,917	14,67
217,387	-0,33
217,857	18,67
218,326	19,67
218,796	1,67
219,266	-12,33
219,736	-4,33
220,206	-1,33
220,676	4,67
221,145	-3,33
221,615	1,67
222,085	3,67
222,555	0,67
223,024	10,67
223,494	-1,33
223,964	-6,33
224,433	7,67
224,903	2,67
225,372	-4,33
225,842	7,67
226,311	5,67
226,781	4,67
227,25	8,67
227,72	11,67
228,189	3,67
228,658	-1,33
229,128	19,67
229,597	3,67
230,066	5,67
230,536	6,67
231,005	5,67
231,474	2,67
231,943	18,67
232,412	18,67
232,881	20,67
233,351	5,67
233,82	8,67
234,289	13,67
234,758	-3,33
235,227	9,67
235,696	-1,33
236,165	12,67
236,634	12,67
237,103	2,67
237,572	6,67
238,04	1,67
238,509	7,67
238,978	2,67
239,447	15,67
239,916	11,67
240,384	1,67
240,853	10,67
241,322	3,67
241,79	-0,33
242,259	11,67
242,728	4,67
243,196	5,67
243,665	-0,33
244,133	-3,33
244,602	6,67
245,07	4,67
245,539	-1,33
246,007	3,67
246,476	8,67
246,944	6,67
247,413	4,67
247,881	3,67
248,349	-4,33
248,817	9,67
249,286	21,67
249,754	10,67
250,222	6,67
250,69	6,67
251,159	3,67
251,627	3,67
252,095	5,67
252,563	3,67
253,031	10,67
253,499	9,67
253,967	-9,33
254,435	5,67
254,903	2,67
255,371	11,67
255,839	23,67
256,307	4,67
256,775	8,67
257,242	10,67
257,71	-3,33
258,178	2,67
258,646	-4,33
259,114	2,67
259,581	7,67
260,049	12,67
260,517	-0,33
260,984	-0,33
261,452	2,67
261,919	-2,33
262,387	3,67
262,855	-1,33
263,322	10,67
263,79	5,67
264,257	1,67
264,724	-0,33
265,192	2,67
265,659	16,67
266,127	6,67
266,594	13,67
267,061	-5,33
267,529	6,67
267,996	8,67
268,463	18,67
268,93	26,67
269,397	-4,33
269,865	5,67
270,332	10,67
270,799	10,67
271,266	5,67
271,733	8,67
272,2	10,67
272,667	6,67
273,134	7,67
273,601	17,67
274,068	-3,33
274,535	3,67
275,002	-6,33
275,469	-7,33
275,935	-4,33
276,402	0,67
276,869	-3,33
277,336	2,67
277,802	-5,33
278,269	3,67
278,736	6,67
279,203	8,67
279,669	15,67
280,136	4,67
280,602	3,67
281,069	12,67
281,535	20,67
282,002	3,67
282,468	1,67
282,935	11,67
283,401	8,67
283,868	6,67
284,334	6,67
284,8	19,67
285,267	9,67
285,733	-5,33
286,199	1,67
286,666	15,67
287,132	5,67
287,598	-4,33
288,064	15,67
288,53	17,67
288,996	14,67
289,463	12,67
289,929	5,67
290,395	5,67
290,861	5,67
291,327	15,67
291,793	18,67
292,259	-3,33
292,725	12,67
293,19	1,67
293,656	6,67
294,122	5,67
294,588	16,67
295,054	-3,33
295,52	5,67
295,985	8,67
296,451	3,67
296,917	6,67
297,382	10,67
297,848	5,67
298,314	-2,33
298,779	14,67
299,245	3,67
299,71	5,67
300,176	16,67
300,641	5,67
301,107	-10,33
301,572	5,67
302,038	15,67
302,503	7,67
302,968	12,67
303,434	5,67
303,899	3,67
304,364	2,67
304,83	9,67
305,295	3,67
305,76	16,67
306,225	11,67
306,69	0,67
307,156	4,67
307,621	4,67
308,086	15,67
308,551	1,67
309,016	11,67
309,481	0,67
309,946	17,67
310,411	12,67
310,876	-6,33
311,341	14,67
311,806	-8,33
312,27	7,67
312,735	3,67
313,2	10,67
313,665	12,67
314,13	12,67
314,594	14,67
315,059	14,67
315,524	-2,33
315,988	11,67
316,453	2,67
316,918	-1,33
317,382	10,67
317,847	17,67
318,311	-2,33
318,776	10,67
319,24	5,67
319,705	12,67
320,169	0,67
320,634	5,67
321,098	5,67
321,562	10,67
322,027	21,67
322,491	-0,33
322,955	20,67
323,419	16,67
323,884	4,67
324,348	15,67
324,812	1,67
325,276	5,67
325,74	6,67
326,204	7,67
326,668	2,67
327,132	14,67
327,596	10,67
328,06	0,67
328,524	4,67
328,988	7,67
329,452	9,67
329,916	-3,33
330,38	9,67
330,844	1,67
331,308	0,67
331,771	17,67
332,235	6,67
332,699	18,67
333,163	7,67
333,626	12,67
334,09	9,67
334,554	5,67
335,017	6,67
335,481	11,67
335,944	-3,33
336,408	6,67
336,871	-2,33
337,335	16,67
337,798	2,67
338,262	-0,33
338,725	5,67
339,188	13,67
339,652	3,67
340,115	9,67
340,578	9,67
341,042	21,67
341,505	12,67
341,968	-8,33
342,431	10,67
342,895	7,67
343,358	-3,33
343,821	6,67
344,284	7,67
344,747	7,67
345,21	-2,33
345,673	21,67
346,136	18,67
346,599	26,67
347,062	11,67
347,525	11,67
347,988	17,67
348,451	5,67
348,913	-2,33
349,376	-0,33
349,839	1,67
350,302	12,67
350,765	-8,33
351,227	13,67
351,69	8,67
352,153	8,67
352,615	3,67
353,078	13,67
353,54	-2,33
354,003	19,67
354,465	3,67
354,928	-4,33
355,39	21,67
355,853	3,67
356,315	9,67
356,778	-2,33
357,24	6,67
357,702	7,67
358,165	11,67
358,627	5,67
359,089	-4,33
359,552	-1,33
360,014	16,67
360,476	4,67
360,938	-0,33
361,4	14,67
361,862	6,67
362,325	8,67
362,787	3,67
363,249	6,67
363,711	6,67
364,173	9,67
364,635	-7,33
365,097	3,67
365,558	-6,33
366,02	10,67
366,482	8,67
366,944	-1,33
367,406	4,67
367,868	12,67
368,329	3,67
368,791	10,67
369,253	2,67
369,714	5,67
370,176	11,67
370,638	4,67
371,099	7,67
371,561	9,67
372,022	2,67
372,484	-3,33
372,945	17,67
373,407	7,67
373,868	7,67
374,33	-5,33
374,791	-0,33
375,253	6,67
375,714	-2,33
376,175	-1,33
376,637	4,67
377,098	10,67
377,559	2,67
378,02	1,67
378,481	-6,33
378,943	10,67
379,404	18,67
379,865	6,67
380,326	14,67
380,787	-1,33
381,248	0,67
381,709	5,67
382,17	16,67
382,631	-1,33
383,092	8,67
383,553	-3,33
384,014	13,67
384,474	1,67
384,935	7,67
385,396	0,67
385,857	-8,33
386,318	12,67
386,778	-2,33
387,239	8,67
387,7	8,67
388,16	-0,33
388,621	6,67
389,082	6,67
389,542	11,67
390,003	-0,33
390,463	4,67
390,924	22,67
391,384	18,67
391,845	5,67
392,305	7,67
392,765	11,67
393,226	14,67
393,686	5,67
394,146	11,67
394,607	7,67
395,067	13,67
395,527	7,67
395,987	1,67
396,447	7,67
396,908	15,67
397,368	8,67
397,828	3,67
398,288	0,67
398,748	-4,33
399,208	6,67
399,668	8,67
400,128	11,67
400,588	6,67
401,048	2,67
401,508	13,67
401,968	16,67
402,427	12,67
402,887	-1,33
403,347	6,67
403,807	1,67
404,266	7,67
404,726	7,67
405,186	-3,33
405,645	2,67
406,105	8,67
406,565	18,67
407,024	8,67
407,484	5,67
407,943	19,67
408,403	9,67
408,862	19,67
409,322	1,67
409,781	14,67
410,241	8,67
410,7	24,67
411,159	12,67
411,619	19,67
412,078	27,67
412,537	30,67
412,996	24,67
413,456	15,67
413,915	15,67
414,374	26,67
414,833	28,67
415,292	41,67
415,751	40,67
416,21	35,67
416,669	41,67
417,128	36,67
417,587	51,67
418,046	55,67
418,505	47,67
418,964	67,67
419,423	63,67
419,882	59,67
420,341	81,67
420,799	93,67
421,258	85,67
421,717	90,67
422,176	114,67
422,634	106,67
423,093	120,67
423,552	131,67
424,01	150,67
424,469	126,67
424,927	171,67
425,386	194,67
425,844	177,67
426,303	199,67
426,761	227,67
427,22	244,67
427,678	248,67
428,137	272,67
428,595	283,67
429,053	309,67
429,512	322,67
429,97	330,67
430,428	381,67
430,886	395,67
431,344	421,67
431,803	422,67
432,261	465,67
432,719	472,67
433,177	509,67
433,635	523,67
434,093	563,67
434,551	610,67
435,009	581,67
435,467	607,67
435,925	654,67
436,383	665,67
436,841	713,67
437,299	710,67
437,756	736,67
438,214	729,67
438,672	821,67
439,13	823,67
439,587	891,67
440,045	889,67
440,503	926,67
440,96	1015,67
441,418	1038,67
441,876	1081,67
442,333	1083,67
442,791	1155,67
443,248	1205,67
443,706	1209,67
444,163	1238,67
444,621	1301,67
445,078	1359,67
445,535	1383,67
445,993	1473,67
446,45	1450,67
446,907	1539,67
447,365	1559,67
447,822	1633,67
448,279	1626,67
448,736	1631,67
449,193	1665,67
449,651	1661,67
450,108	1697,67
450,565	1694,67
451,022	1648,67
451,479	1674,67
451,936	1640,67
452,393	1649,67
452,85	1539,67
453,307	1569,67
453,764	1531,67
454,221	1478,67
454,677	1449,67
455,134	1331,67
455,591	1367,67
456,048	1294,67
456,505	1201,67
456,961	1150,67
457,418	1122,67
457,875	1075,67
458,331	1035,67
458,788	963,67
459,244	966,67
459,701	970,67
460,158	873,67
460,614	832,67
461,071	830,67
461,527	827,67
461,983	777,67
462,44	741,67
462,896	732,67
463,353	715,67
463,809	701,67
464,265	659,67
464,721	645,67
465,178	657,67
465,634	654,67
466,09	618,67
466,546	570,67
467,002	584,67
467,458	542,67
467,915	553,67
468,371	546,67
468,827	512,67
469,283	515,67
469,739	522,67
470,195	459,67
470,651	461,67
471,106	445,67
471,562	411,67
472,018	410,67
472,474	409,67
472,93	382,67
473,386	370,67
473,841	349,67
474,297	360,67
474,753	355,67
475,208	337,67
475,664	343,67
476,12	313,67
476,575	336,67
477,031	308,67
477,486	299,67
477,942	285,67
478,397	275,67
478,853	277,67
479,308	270,67
479,763	293,67
480,219	294,67
480,674	280,67
481,13	265,67
481,585	273,67
482,04	264,67
482,495	268,67
482,951	273,67
483,406	263,67
483,861	276,67
484,316	260,67
484,771	273,67
485,226	273,67
485,681	251,67
486,136	260,67
486,591	256,67
487,046	275,67
487,501	269,67
487,956	277,67
488,411	279,67
488,866	283,67
489,321	283,67
489,775	279,67
490,23	285,67
490,685	263,67
491,14	278,67
491,594	282,67
492,049	286,67
492,504	310,67
492,958	293,67
493,413	338,67
493,868	314,67
494,322	347,67
494,777	338,67
495,231	333,67
495,686	345,67
496,14	328,67
496,594	345,67
497,049	348,67
497,503	381,67
497,958	371,67
498,412	395,67
498,866	382,67
499,32	378,67
499,775	405,67
500,229	417,67
500,683	395,67
501,137	407,67
501,591	437,67
502,045	415,67
502,499	461,67
502,953	471,67
503,407	482,67
503,861	473,67
504,315	474,67
504,769	487,67
505,223	510,67
505,677	496,67
506,131	514,67
506,585	507,67
507,039	555,67
507,492	549,67
507,946	540,67
508,4	570,67
508,854	567,67
509,307	579,67
509,761	586,67
510,214	563,67
510,668	588,67
511,122	616,67
511,575	591,67
512,029	625,67
512,482	632,67
512,936	639,67
513,389	647,67
513,842	658,67
514,296	647,67
514,749	661,67
515,202	693,67
515,656	690,67
516,109	698,67
516,562	708,67
517,015	697,67
517,469	720,67
517,922	710,67
518,375	749,67
518,828	706,67
519,281	731,67
519,734	749,67
520,187	741,67
520,64	775,67
521,093	763,67
521,546	799,67
521,999	777,67
522,452	811,67
522,905	788,67
523,358	804,67
523,81	813,67
524,263	787,67
524,716	813,67
525,169	814,67
525,621	853,67
526,074	860,67
526,527	838,67
526,979	865,67
527,432	863,67
527,884	882,67
528,337	858,67
528,789	886,67
529,242	894,67
529,694	887,67
530,147	900,67
530,599	903,67
531,052	883,67
531,504	934,67
531,956	931,67
532,409	972,67
532,861	907,67
533,313	946,67
533,765	955,67
534,218	945,67
534,67	996,67
535,122	926,67
535,574	981,67
536,026	966,67
536,478	967,67
536,93	989,67
537,382	973,67
537,834	1015,67
538,286	1004,67
538,738	985,67
539,19	989,67
539,642	975,67
540,094	1026,67
540,545	997,67
540,997	1018,67
541,449	996,67
541,901	1019,67
542,352	1052,67
542,804	996,67
543,256	1017,67
543,707	1010,67
544,159	999,67
544,611	1043,67
545,062	1007,67
545,514	1011,67
545,965	1042,67
546,417	1038,67
546,868	1039,67
547,319	1031,67
547,771	1022,67
548,222	1025,67
548,674	1035,67
549,125	1042,67
549,576	1066,67
550,027	995,67
550,479	1090,67
550,93	1008,67
551,381	1019,67
551,832	1034,67
552,283	1030,67
552,734	1069,67
553,185	1032,67
553,636	1073,67
554,087	1053,67
554,538	1037,67
554,989	1034,67
555,44	1048,67
555,891	1039,67
556,342	1033,67
556,793	1015,67
557,244	998,67
557,694	1053,67
558,145	1002,67
558,596	1053,67
559,047	1024,67
559,497	996,67
559,948	1013,67
560,399	1011,67
560,849	1037,67
561,3	1002,67
561,75	1005,67
562,201	954,67
562,651	1018,67
563,102	996,67
563,552	974,67
564,003	1009,67
564,453	978,67
564,903	981,67
565,354	969,67
565,804	999,67
566,254	951,67
566,705	977,67
567,155	952,67
567,605	975,67
568,055	986,67
568,505	945,67
568,955	974,67
569,405	936,67
569,856	948,67
570,306	923,67
570,756	971,67
571,206	983,67
571,656	953,67
572,105	915,67
572,555	971,67
573,005	952,67
573,455	909,67
573,905	945,67
574,355	963,67
574,804	953,67
575,254	953,67
575,704	923,67
576,154	957,67
576,603	956,67
577,053	940,67
577,502	940,67
577,952	894,67
578,402	972,67
578,851	971,67
579,301	943,67
579,75	962,67
580,199	919,67
580,649	953,67
581,098	959,67
581,548	957,67
581,997	987,67
582,446	1010,67
582,895	1018,67
583,345	990,67
583,794	1000,67
584,243	1054,67
584,692	1042,67
585,141	1030,67
585,591	1073,67
586,04	1088,67
586,489	1116,67
586,938	1100,67
587,387	1132,67
587,836	1163,67
588,285	1214,67
588,734	1253,67
589,182	1204,67
589,631	1282,67
590,08	1333,67
590,529	1393,67
590,978	1415,67
591,426	1496,67
591,875	1526,67
592,324	1567,67
592,773	1666,67
593,221	1747,67
593,67	1803,67
594,118	1921,67
594,567	1915,67
595,016	2045,67
595,464	2141,67
595,913	2203,67
596,361	2282,67
596,809	2344,67
597,258	2399,67
597,706	2507,67
598,155	2508,67
598,603	2619,67
599,051	2688,67
599,499	2697,67
599,948	2747,67
600,396	2840,67
600,844	2882,67
601,292	2950,67
601,74	3016,67
602,188	3101,67
602,636	3064,67
603,085	3147,67
603,533	3163,67
603,981	3178,67
604,429	3216,67
604,876	3241,67
605,324	3291,67
605,772	3254,67
606,22	3267,67
606,668	3259,67
607,116	3316,67
607,563	3268,67
608,011	3408,67
608,459	3326,67
608,907	3388,67
609,354	3389,67
609,802	3325,67
610,25	3335,67
610,697	3356,67
611,145	3384,67
611,592	3328,67
612,04	3335,67
612,487	3349,67
612,935	3276,67
613,382	3240,67
613,829	3269,67
614,277	3270,67
614,724	3248,67
615,171	3195,67
615,619	3208,67
616,066	3145,67
616,513	3104,67
616,96	3077,67
617,408	3067,67
617,855	3000,67
618,302	2970,67
618,749	2948,67
619,196	2952,67
619,643	2875,67
620,09	2877,67
620,537	2826,67
620,984	2815,67
621,431	2684,67
621,878	2699,67
622,325	2632,67
622,771	2582,67
623,218	2517,67
623,665	2498,67
624,112	2527,67
624,559	2452,67
625,005	2397,67
625,452	2290,67
625,899	2256,67
626,345	2216,67
626,792	2180,67
627,238	2171,67
627,685	2084,67
628,131	2078,67
628,578	2034,67
629,024	1978,67
629,471	1973,67
629,917	1844,67
630,364	1882,67
630,81	1834,67
631,256	1797,67
631,703	1728,67
632,149	1667,67
632,595	1638,67
633,041	1638,67
633,487	1588,67
633,934	1527,67
634,38	1554,67
634,826	1464,67
635,272	1452,67
635,718	1466,67
636,164	1401,67
636,61	1375,67
637,056	1347,67
637,502	1313,67
637,948	1278,67
638,394	1221,67
638,839	1223,67
639,285	1189,67
639,731	1142,67
640,177	1148,67
640,623	1126,67
641,068	1107,67
641,514	1086,67
641,96	1056,67
642,405	1012,67
642,851	1030,67
643,296	983,67
643,742	995,67
644,187	954,67
644,633	953,67
645,078	921,67
645,524	902,67
645,969	901,67
646,415	858,67
646,86	851,67
647,305	828,67
647,751	803,67
648,196	793,67
648,641	778,67
649,086	749,67
649,532	777,67
649,977	780,67
650,422	745,67
650,867	699,67
651,312	735,67
651,757	733,67
652,202	673,67
652,647	679,67
653,092	684,67
653,537	664,67
653,982	657,67
654,427	615,67
654,872	621,67
655,316	627,67
655,761	611,67
656,206	585,67
656,651	577,67
657,096	577,67
657,54	594,67
657,985	563,67
658,43	562,67
658,874	568,67
659,319	523,67
659,763	574,67
660,208	501,67
660,652	512,67
661,097	514,67
661,541	509,67
661,986	481,67
662,43	488,67
662,874	525,67
663,319	478,67
663,763	488,67
664,207	510,67
664,651	451,67
665,096	438,67
665,54	466,67
665,984	435,67
666,428	424,67
666,872	429,67
667,316	438,67
667,76	425,67
668,204	425,67
668,648	437,67
669,092	395,67
669,536	431,67
669,98	430,67
670,424	395,67
670,868	409,67
671,312	385,67
671,756	390,67
672,199	382,67
672,643	410,67
673,087	371,67
673,531	369,67
673,974	352,67
674,418	386,67
674,862	383,67
675,305	356,67
675,749	366,67
676,192	364,67
676,636	374,67
677,079	377,67
677,523	354,67
677,966	324,67
678,409	357,67
678,853	334,67
679,296	347,67
679,739	337,67
680,183	353,67
680,626	330,67
681,069	334,67
681,512	322,67
681,955	330,67
682,399	343,67
682,842	326,67
683,285	316,67
683,728	324,67
684,171	340,67
684,614	299,67
685,057	293,67
685,5	328,67
685,943	300,67
686,386	293,67
686,828	296,67
687,271	302,67
687,714	310,67
688,157	314,67
688,6	306,67
689,042	292,67
689,485	294,67
689,928	285,67
690,37	310,67
690,813	294,67
691,255	292,67
691,698	274,67
692,141	295,67
692,583	290,67
693,025	264,67
693,468	265,67
693,91	256,67
694,353	265,67
694,795	269,67
695,237	287,67
695,68	261,67
696,122	271,67
696,564	240,67
697,006	262,67
697,449	230,67
697,891	250,67
698,333	248,67
698,775	232,67
699,217	221,67
699,659	243,67
700,101	211,67
700,543	226,67
700,985	241,67
701,427	232,67
701,869	219,67
702,311	232,67
702,753	203,67
703,195	209,67
703,636	215,67
704,078	208,67
704,52	228,67
704,962	217,67
705,403	229,67
705,845	210,67
706,286	184,67
706,728	200,67
707,17	210,67
707,611	196,67
708,053	204,67
708,494	185,67
708,936	187,67
709,377	203,67
709,819	186,67
710,26	191,67
710,701	184,67
711,143	187,67
711,584	183,67
712,025	179,67
712,466	172,67
712,908	171,67
713,349	158,67
713,79	168,67
714,231	171,67
714,672	180,67
715,113	163,67
715,554	163,67
715,995	152,67
716,436	158,67
716,877	168,67
717,318	158,67
717,759	150,67
718,2	147,67
718,641	138,67
719,082	133,67
719,522	143,67
719,963	141,67
720,404	126,67
720,844	130,67
721,285	118,67
721,726	124,67
722,166	124,67
722,607	136,67
723,048	113,67
723,488	113,67
723,929	117,67
724,369	116,67
724,81	142,67
725,25	119,67
725,69	121,67
726,131	113,67
726,571	113,67
727,011	114,67
727,452	95,67
727,892	98,67
728,332	97,67
728,772	108,67
729,212	94,67
729,653	97,67
730,093	123,67
730,533	91,67
730,973	94,67
731,413	93,67
731,853	112,67
732,293	103,67
732,733	99,67
733,173	95,67
733,613	95,67
734,052	85,67
734,492	84,67
734,932	80,67
735,372	113,67
735,812	91,67
736,251	82,67
736,691	66,67
737,131	78,67
737,57	75,67
738,01	90,67
738,449	71,67
738,889	75,67
739,329	78,67
739,768	69,67
740,208	85,67
740,647	49,67
741,086	57,67
741,526	76,67
741,965	56,67
742,404	77,67
742,844	79,67
743,283	55,67
743,722	82,67
744,161	72,67
744,601	65,67
745,04	59,67
745,479	63,67
745,918	52,67
746,357	68,67
746,796	62,67
747,235	56,67
747,674	57,67
748,113	59,67
748,552	51,67
748,991	63,67
749,43	54,67
749,869	82,67
750,307	62,67
750,746	44,67
751,185	57,67
751,624	43,67
752,062	61,67
752,501	51,67
752,94	44,67
753,378	35,67
753,817	37,67
754,255	48,67
754,694	50,67
755,132	60,67
755,571	52,67
756,009	52,67
756,448	38,67
756,886	53,67
757,325	49,67
757,763	40,67
758,201	44,67
758,639	46,67
759,078	55,67
759,516	47,67
759,954	41,67
760,392	38,67
760,83	23,67
761,268	39,67
761,707	50,67
762,145	59,67
762,583	43,67
763,021	35,67
763,459	46,67
763,896	44,67
764,334	49,67
764,772	36,67
765,21	36,67
765,648	31,67
766,086	40,67
766,524	29,67
766,961	29,67
767,399	33,67
767,837	39,67
768,274	42,67
768,712	29,67
769,149	47,67
769,587	37,67
770,025	23,67
770,462	33,67
770,9	25,67
771,337	29,67
771,774	30,67
772,212	35,67
772,649	42,67
773,087	29,67
773,524	32,67
773,961	52,67
774,398	27,67
774,836	13,67
775,273	16,67
775,71	8,67
776,147	26,67
776,584	26,67
777,021	25,67
777,458	29,67
777,895	16,67
778,332	18,67
778,769	27,67
779,206	36,67
779,643	18,67
780,08	26,67
780,517	23,67
780,954	25,67
781,391	17,67
781,827	16,67
782,264	11,67
782,701	26,67
783,137	31,67
783,574	24,67
784,011	9,67
784,447	16,67
784,884	17,67
785,32	20,67
785,757	24,67
786,193	21,67
786,63	6,67
787,066	19,67
787,503	22,67
787,939	14,67
788,375	18,67
788,812	13,67
789,248	15,67
789,684	5,67
790,12	19,67
790,557	28,67
790,993	16,67
791,429	10,67
791,865	36,67
792,301	20,67
792,737	10,67
793,173	19,67
793,609	7,67
794,045	16,67
794,481	14,67
794,917	22,67
795,353	0,67
795,789	13,67
796,225	19,67
796,66	14,67
797,096	18,67
797,532	13,67
797,968	15,67
798,403	23,67
798,839	26,67
799,275	16,67
799,71	9,67
800,146	16,67
800,581	13,67
801,017	7,67
801,452	8,67
801,888	12,67
802,323	10,67
802,759	2,67
803,194	16,67
803,629	22,67
804,065	24,67
804,5	3,67
804,935	13,67
805,37	-4,33
805,806	8,67
806,241	10,67
806,676	22,67
807,111	6,67
807,546	15,67
807,981	19,67
808,416	13,67
808,851	14,67
809,286	19,67
809,721	23,67
810,156	12,67
810,591	17,67
811,026	-12,33
811,46	8,67
811,895	21,67
812,33	10,67
812,765	18,67
813,199	7,67
813,634	3,67
814,069	18,67
814,503	17,67
814,938	26,67
815,373	15,67
815,807	18,67
816,242	11,67
816,676	3,67
817,111	14,67
817,545	1,67
817,979	-0,33
818,414	2,67
818,848	7,67
819,282	5,67
819,717	0,67
820,151	6,67
820,585	5,67
821,019	7,67
821,453	-2,33
821,888	-5,33
822,322	11,67
822,756	19,67
823,19	7,67
823,624	2,67
824,058	8,67
824,492	10,67
824,926	0,67
825,36	5,67
825,794	6,67
826,227	8,67
826,661	18,67
827,095	6,67
827,529	17,67
827,962	6,67
828,396	9,67
828,83	6,67
829,263	7,67
829,697	10,67
830,131	2,67
830,564	13,67
830,998	-5,33
831,431	6,67
831,865	12,67
832,298	11,67
832,732	17,67
833,165	11,67
833,598	9,67
834,032	18,67
834,465	-1,33
834,898	15,67
835,331	3,67
835,765	9,67
836,198	3,67
836,631	9,67
837,064	25,67
837,497	16,67
837,93	6,67
838,363	8,67
838,796	10,67
839,229	7,67
839,662	7,67
840,095	5,67
840,528	0,67
840,961	2,67
841,394	26,67
841,827	14,67
842,259	-4,33
842,692	-1,33
843,125	-6,33
843,558	8,67
843,99	-3,33
844,423	16,67
844,855	5,67
845,288	16,67
845,721	-4,33
846,153	3,67
846,586	6,67
847,018	12,67
847,45	4,67
847,883	7,67
848,315	10,67
848,748	8,67
849,18	5,67
849,612	-1,33
850,044	10,67
850,477	22,67
850,909	14,67
851,341	4,67
851,773	9,67
852,205	9,67
852,637	0,67
853,069	5,67
853,501	14,67
853,933	-4,33
854,365	14,67
854,797	9,67
855,229	0,67
855,661	14,67
856,093	11,67
856,525	0,67
856,957	13,67
857,388	6,67
857,82	17,67
858,252	3,67
858,683	18,67
859,115	-3,33
859,547	29,67
859,978	5,67
860,41	24,67
860,841	12,67
861,273	4,67
861,704	-6,33
862,136	11,67
862,567	-5,33
862,999	-0,33
863,43	-1,33
863,861	9,67
864,293	-0,33
864,724	3,67
865,155	-2,33
865,586	20,67
866,017	4,67
866,449	3,67
866,88	1,67
867,311	11,67
867,742	3,67
868,173	5,67
868,604	2,67
869,035	2,67
869,466	-5,33
869,897	14,67
870,328	8,67
870,759	5,67
871,189	12,67
871,62	2,67
872,051	-4,33
872,482	14,67
872,912	-3,33
873,343	-1,33
873,774	11,67
874,204	1,67
874,635	3,67
875,066	1,67
875,496	17,67
875,927	5,67
876,357	5,67
876,788	22,67
877,218	10,67
877,648	10,67
878,079	-4,33
878,509	11,67
878,939	2,67
879,37	5,67
879,8	-6,33
880,23	6,67
880,66	18,67
881,091	12,67
881,521	7,67
881,951	11,67
882,381	12,67
882,811	-3,33
883,241	-6,33
883,671	16,67
884,101	-10,33
884,531	-1,33
884,961	2,67
885,391	16,67
885,82	7,67
886,25	2,67
886,68	10,67
887,11	4,67
887,539	11,67
887,969	8,67
888,399	4,67
888,828	5,67
889,258	19,67
889,688	4,67
890,117	3,67
890,547	6,67
890,976	-5,33
891,406	10,67
891,835	-9,33
892,264	4,67
892,694	11,67
893,123	18,67
893,553	15,67
893,982	9,67
894,411	11,67
894,84	6,67
895,269	-4,33
895,699	9,67
896,128	1,67
896,557	1,67
896,986	-3,33
897,415	7,67
897,844	4,67
898,273	1,67
898,702	1,67
899,131	9,67
899,56	-5,33
899,989	12,67
900,418	11,67
900,846	6,67
901,275	7,67
901,704	11,67
902,133	0,67
902,561	4,67
902,99	5,67
903,419	0,67
903,847	14,67
904,276	9,67
904,704	17,67
905,133	-4,33
905,561	17,67
905,99	16,67
906,418	10,67
906,847	1,67
907,275	-3,33
907,704	6,67
908,132	-1,33
908,56	3,67
908,988	3,67
909,417	15,67
909,845	17,67
910,273	-3,33
910,701	12,67
911,129	-7,33
911,557	4,67
911,985	3,67
912,413	-6,33
912,841	10,67
913,269	22,67
913,697	-7,33
914,125	13,67
914,553	12,67
914,981	16,67
915,409	3,67
915,837	-1,33
916,264	11,67
916,692	-13,33
917,12	10,67
917,547	13,67
917,975	1,67
918,403	10,67
918,83	7,67
919,258	-6,33
919,685	11,67
920,113	18,67
920,54	-5,33
920,968	0,67
921,395	4,67
921,823	6,67
922,25	8,67
922,677	2,67
923,104	9,67
923,532	2,67
923,959	8,67
924,386	10,67
924,813	8,67
925,24	9,67
925,668	14,67
926,095	8,67
926,522	-1,33
926,949	13,67
927,376	2,67
927,803	3,67
928,23	0,67
928,657	-9,33
929,083	13,67
929,51	-10,33
929,937	-0,33
930,364	3,67
930,791	8,67
931,217	13,67
931,644	-1,33
932,071	8,67
932,497	0,67
932,924	2,67
933,351	2,67
933,777	5,67
934,204	10,67
934,63	-1,33
935,057	17,67
935,483	7,67
935,909	7,67
936,336	-1,33
936,762	8,67
937,188	3,67
937,615	5,67
938,041	-0,33
938,467	4,67
938,893	0,67
939,32	-4,33
939,746	17,67
940,172	15,67
940,598	-9,33
941,024	-14,33
941,45	3,67
941,876	-0,33
942,302	28,67
942,728	7,67
943,154	16,67
943,58	-3,33
944,005	1,67
944,431	17,67
944,857	-5,33
945,283	0,67
945,709	-5,33
946,134	4,67
946,56	-4,33
946,986	2,67
947,411	2,67
947,837	5,67
948,262	10,67
948,688	6,67
949,113	2,67
949,539	0,67
949,964	4,67
950,39	14,67
950,815	8,67
951,24	8,67
951,666	-1,33
952,091	-9,33
952,516	6,67
952,941	-6,33
953,367	13,67
953,792	-4,33
954,217	1,67
954,642	4,67
955,067	-0,33
955,492	8,67
955,917	9,67
956,342	3,67
956,767	6,67
957,192	9,67
957,617	-4,33
958,042	3,67
958,466	1,67
958,891	-0,33
959,316	9,67
959,741	15,67
960,166	9,67
960,59	11,67
961,015	9,67
961,439	3,67
961,864	8,67
962,289	-7,33
962,713	11,67
963,138	12,67
963,562	-1,33
963,987	3,67
964,411	0,67
964,835	11,67
965,26	3,67
965,684	-2,33
966,108	4,67
966,533	19,67
966,957	1,67
967,381	3,67
967,805	3,67
968,229	3,67
968,654	9,67
969,078	6,67
969,502	-1,33
969,926	-0,33
970,35	-4,33
970,774	16,67
971,198	1,67
971,622	6,67
972,045	2,67
972,469	11,67
972,893	5,67
973,317	5,67
973,741	13,67
974,164	4,67
974,588	-7,33
975,012	14,67
975,435	3,67
975,859	7,67
976,283	-2,33
976,706	0,67
977,13	-2,33
977,553	10,67
977,977	5,67
978,4	13,67
978,824	5,67
979,247	3,67
979,67	11,67
980,094	-8,33
980,517	-0,33
980,94	4,67
981,363	-2,33
981,786	1,67
982,21	-5,33
982,633	6,67
983,056	12,67
983,479	-0,33
983,902	23,67
984,325	-1,33
984,748	3,67
985,171	1,67
985,594	11,67
986,017	6,67
986,44	-3,33
986,863	-0,33
987,285	-0,33
987,708	13,67
988,131	-3,33
988,554	6,67
988,976	1,67
989,399	9,67
989,822	8,67
990,244	-2,33
990,667	11,67
991,089	8,67
991,512	6,67
991,934	7,67
992,357	4,67
992,779	1,67
993,201	6,67
993,624	13,67
994,046	-2,33
994,468	-1,33
994,891	11,67
995,313	9,67
995,735	6,67
996,157	11,67
996,579	2,67
997,002	3,67
997,424	18,67
997,846	-12,33
998,268	7,67
998,69	3,67
999,112	6,67
999,534	9,67
999,956	5,67
1000,377	7,67
1000,799	20,67
1001,221	1,67
1001,643	3,67
1002,065	1,67
1002,486	-0,33
1002,908	11,67
1003,33	3,67
1003,751	5,67
1004,173	6,67
1004,595	-9,33
1005,016	17,67
1005,438	-0,33
1005,859	3,67
1006,281	7,67
1006,702	0,67
1007,123	6,67
1007,545	6,67
1007,966	16,67
1008,387	10,67
1008,809	-1,33
1009,23	-2,33
1009,651	-4,33
1010,072	10,67
1010,494	4,67
1010,915	9,67
1011,336	1,67
1011,757	2,67
1012,178	8,67
1012,599	-0,33
1013,02	14,67
1013,441	9,67
1013,862	8,67
1014,283	3,67
1014,703	9,67
1015,124	18,67
1015,545	21,67
1015,966	-2,33
1016,387	2,67
1016,807	18,67
1017,228	7,67
1017,649	-2,33
1018,069	22,67
1018,49	9,67
1018,91	2,67
1019,331	10,67
1019,751	9,67
1020,172	-8,33
1020,592	2,67
1021,013	1,67
1021,433	-1,33
1021,853	-12,33
1022,274	-7,33
1022,694	-4,33
1023,114	8,67
1023,535	11,67
1023,955	-1,33
1024,375	6,67
1024,795	-4,33
1025,215	0,67
1025,635	1,67
1026,055	16,67
1026,475	1,67
1026,895	0,67
1027,315	13,67
1027,735	15,67
1028,155	12,67
1028,575	9,67
1028,995	0,67
1029,414	3,67
1029,834	2,67
1030,254	6,67
1030,674	10,67
1031,093	-4,33
1031,513	4,67
1031,933	12,67
1032,352	14,67
1032,772	3,67
1033,191	9,67
1033,611	1,67
1034,03	1,67
1034,45	4,67
1034,869	4,67
1035,289	18,67
1035,708	4,67
1036,127	-2,33
1036,546	0,67
1036,966	2,67
1037,385	-1,33
1037,804	-4,33
1038,223	2,67
1038,642	-4,33
1039,062	0,67
1039,481	3,67
1039,9	5,67
1040,319	8,67
1040,738	7,67
1041,157	8,67
1041,576	-8,33
1041,994	12,67
1042,413	1,67
1042,832	-3,33
1043,251	13,67
1043,67	10,67
1044,088	-13,33
1044,507	10,67
1044,926	-9,33
1045,345	3,67
1045,763	16,67
1046,182	0,67
1046,6	5,67
1047,019	0,67
1047,437	4,67
1047,856	5,67
1048,274	12,67
1048,693	0,67
1049,111	19,67
1049,529	12,67
1049,948	-0,33
1050,366	16,67
1050,784	12,67
1051,202	7,67
1051,621	1,67
1052,039	11,67
1052,457	11,67
1052,875	2,67
1053,293	10,67
1053,711	9,67
1054,129	9,67
1054,547	18,67
1054,965	0,67
1055,383	-9,33
1055,801	2,67
1056,219	13,67
1056,637	6,67
1057,054	2,67
1057,472	0,67
1057,89	12,67
1058,308	12,67
1058,725	3,67
1059,143	5,67
1059,561	-0,33
1059,978	11,67
1060,396	6,67
1060,813	-6,33
1061,231	6,67
1061,648	2,67
1062,066	-1,33
1062,483	19,67
1062,9	-1,33
1063,318	8,67
1063,735	11,67
1064,152	1,67
1064,57	16,67
1064,987	8,67
1065,404	11,67
1065,821	5,67
1066,238	16,67
1066,655	7,67
1067,073	9,67
1067,49	0,67
1067,907	-10,33
1068,324	21,67
1068,741	5,67
1069,157	12,67
1069,574	19,67
1069,991	6,67
1070,408	18,67
1070,825	12,67
1071,242	-6,33
1071,658	8,67
1072,075	-4,33
1072,492	14,67
1072,908	5,67
1073,325	16,67
1073,742	-15,33
1074,158	-1,33
1074,575	15,67
1074,991	14,67
1075,408	3,67
1075,824	-4,33
1076,24	7,67
1076,657	2,67
1077,073	3,67
1077,489	8,67
1077,906	6,67
1078,322	9,67
1078,738	7,67
1079,154	19,67
1079,571	12,67
1079,987	17,67
1080,403	14,67
1080,819	-3,33
1081,235	7,67
1081,651	17,67
1082,067	2,67
1082,483	19,67
1082,899	0,67
1083,315	9,67
1083,73	14,67
1084,146	-8,33
1084,562	-0,33
1084,978	13,67
1085,394	2,67
1085,809	8,67
1086,225	-2,33
1086,641	20,67
1087,056	-4,33
1087,472	-1,33
1087,887	6,67
1088,303	0,67
1088,718	9,67
1089,134	5,67
1089,549	-1,33
1089,965	9,67
1090,38	10,67
1090,795	9,67
1091,21	-4,33
1091,626	2,67
1092,041	-0,33
1092,456	-8,33
1092,871	1,67
1093,287	-3,33
1093,702	4,67
1094,117	1,67
1094,532	0,67
1094,947	6,67
1095,362	2,67
1095,777	3,67
1096,192	2,67
1096,607	20,67
1097,021	11,67
1097,436	17,67
1097,851	-6,33
1098,266	7,67
1098,681	9,67
1099,095	-8,33
1099,51	15,67
1099,925	6,67
1100,339	-0,33
1100,754	9,67
1101,168	-2,33
1101,583	5,67
1101,998	7,67
1102,412	7,67
1102,826	-2,33
1103,241	2,67
1103,655	14,67
1104,07	16,67
1104,484	14,67
1104,898	5,67
1105,312	4,67
1105,727	5,67
1106,141	-0,33
1106,555	-2,33
1106,969	10,67
1107,383	13,67
1107,797	-0,33
1108,211	11,67
1108,625	2,67
1109,039	10,67
1109,453	16,67
1109,867	1,67
1110,281	7,67
1110,695	4,67
1111,109	-6,33
1111,523	6,67
1111,936	11,67
1112,35	-2,33
1112,764	1,67
1113,177	14,67
1113,591	8,67
1114,005	-3,33
1114,418	-3,33
1114,832	11,67
1115,245	-7,33
1115,659	0,67
